# K filter curve @ T=90K 
# K
# Wavelength (A)	T (%)
   500.00000       0.0001 
  1000.00000       0.0001 
  4970.00000   0.00026682 
  4989.87988  -0.00022829 
  5009.76025   0.00097949 
  5029.63965   -0.0015002 
  5049.52002    0.0001506 
  5069.39990   -0.0009599 
  5089.28027    -7.75e-05 
  5109.15967    -8.21e-05 
  5129.04004  -0.00047846 
  5148.92041  -0.00037363 
  5168.79980   0.00054438 
  5188.67969   0.00050741 
  5208.56006   0.00017969 
  5228.43994   -0.0006409 
  5248.31982   0.00011114 
  5268.20020   0.00059862 
  5288.08008   0.00092661 
  5307.95996   0.00053125 
  5327.83984  -0.00029582 
  5347.71973   0.00060928 
  5367.60010     4.95e-05 
  5387.47998    -2.72e-05 
  5407.36035   0.00033954 
  5427.24023     4.18e-05 
  5447.11963   -0.0002937 
  5467.00000     9.65e-05 
  5486.87988  -0.00023508 
  5506.76025   0.00054303 
  5526.64014   0.00021308 
  5546.51953  -0.00022521 
  5566.40039   0.00027473 
  5586.27979  -0.00010802 
  5606.16016  -0.00017317 
  5626.04004    0.0001043 
  5645.91992  -0.00074492 
  5665.80029     3.12e-05 
  5685.67969  -0.00045762 
  5705.56055  -0.00025854 
  5725.43994  -0.00095204 
  5745.31982  -0.00064288 
  5765.20020  -0.00031416 
  5785.08008   0.00022337 
  5804.95996  -0.00070891 
  5824.83984   0.00023314 
  5844.71973   0.00080546 
  5864.60010  -0.00041291 
  5884.47998    0.0001422 
  5904.35986  -0.00031356 
  5924.24023   0.00043796 
  5944.12012   0.00033987 
  5964.00000  -0.00017491 
  5983.87988   0.00016558 
  6003.75977   -0.0010638 
  6023.64014     4.58e-05 
  6043.52002    -8.38e-05 
  6063.40039    0.0011977 
  6083.28027   0.00036639 
  6103.15967  -0.00041144 
  6123.04004  -0.00047102 
  6142.91992  -0.00081306 
  6162.80029  -0.00012423 
  6182.68018     9.89e-06 
  6202.55957  -0.00092256 
  6222.44043  -0.00035774 
  6242.31982   0.00011212 
  6262.19971    -4.37e-05 
  6282.08008   0.00017007 
  6301.95996    -7.51e-05 
  6321.84033  -0.00036426 
  6341.71973  -0.00026575 
  6361.59961  -0.00068915 
  6381.47998   0.00023046 
  6401.35986   0.00012091 
  6421.24023   0.00067759 
  6441.12012  -0.00019347 
  6461.00000   0.00063157 
  6480.87988   0.00011565 
  6500.75977    -3.07e-05 
  6520.64014     9.11e-06 
  6540.52002   -0.0009605 
  6560.39990     2.74e-05 
  6580.28027    0.0002448 
  6600.16016  -0.00015351 
  6620.04004   0.00018435 
  6639.91992  -0.00015249 
  6659.79980   0.00035917 
  6679.68018   0.00016549 
  6699.56006   0.00028822 
  6719.43945   0.00046586 
  6739.32031   0.00092456 
  6759.19971  -0.00056464 
  6779.08008   0.00044797 
  6798.95996  -0.00010768 
  6818.83984    -8.61e-05 
  6838.72021  -0.00044101 
  6858.59961  -0.00057465 
  6878.48047  -0.00042593 
  6898.35986    -2.72e-05 
  6918.23975   -0.0003367 
  6938.12012     0.000576 
  6958.00000     0.000105 
  6977.88037    0.0001419 
  6997.75977  -0.00013768 
  7017.63965   0.00024646 
  7037.52002    -9.02e-05 
  7057.39990   -0.0002133 
  7077.28027  -0.00015145 
  7097.16016   0.00035648 
  7117.04004  -0.00099092 
  7136.91992   0.00018702 
  7156.79980  -0.00015093 
  7176.68018   0.00071399 
  7196.56006    -7.45e-05 
  7216.43994   0.00022593 
  7236.32031  -0.00018152 
  7256.20020   0.00023345 
  7276.07959  -0.00011483 
  7295.95996   0.00062171 
  7315.83984   0.00059618 
  7335.72021  -0.00032856 
  7355.60010  -0.00043425 
  7375.47949   0.00051839 
  7395.36035    0.0002287 
  7415.23975   0.00035355 
  7435.12012  -0.00028996 
  7455.00000  -0.00022253 
  7474.87988  -0.00076033 
  7494.76025  -0.00054665 
  7514.63965     4.58e-05 
  7534.52051   0.00011215 
  7554.39990  -0.00066549 
  7574.27979    -5.38e-05 
  7594.16016   -0.0001637 
  7614.04004  -0.00027298 
  7633.92041     8.97e-05 
  7653.79980     4.62e-05 
  7673.67969    0.0004152 
  7693.56006   0.00089687 
  7713.43994    0.0010037 
  7733.31982   0.00025655 
  7753.20020     3.63e-05 
  7773.08008   0.00040931 
  7792.95996  -0.00054256 
  7812.83984  -0.00060871 
  7832.71973  -0.00034382 
  7852.60010   0.00027301 
  7872.47998    -2.45e-05 
  7892.36035   -0.0001931 
  7912.24023    0.0010043 
  7932.11963  -0.00095055 
  7952.00000   0.00011606 
  7971.87988   -0.0003051 
  7991.76025  -0.00020581 
  8011.64014   0.00064371 
  8031.51953  -0.00018994 
  8051.40039   0.00067205 
  8071.27979   0.00065283 
  8091.16016  -0.00025013 
  8111.04004  -0.00054601 
  8130.91992    -9.84e-06 
  8150.80029   0.00053665 
  8170.67969   0.00025138 
  8190.56055    -3.02e-05 
  8210.44043   -0.0001533 
  8230.32031  -0.00081957 
  8250.20020   -0.0025392 
  8270.08008   -0.0030724 
  8289.95996   -0.0019902 
  8309.83984   -0.0045471 
  8329.71973   -0.0057365 
  8349.60059   -0.0023705 
  8369.48047   -0.0011563 
  8389.35938   -0.0051509 
  8409.24023   -0.0024006 
  8429.12012   -0.0022239 
  8449.00000    -0.003241 
  8468.87988   -0.0033244 
  8488.75977   -0.0022503 
  8508.64062   -0.0030882 
  8528.51953   -0.0071946 
  8548.40039   -0.0034108 
  8568.28027    0.0015938 
  8588.16016    0.0016321 
  8608.04004   -0.0093945 
  8627.91992   -0.0062972 
  8647.80078  -0.00057606 
  8667.67969   -0.0058748 
  8687.55957   -0.0061343 
  8707.44043   -0.0092299 
  8727.32031   -0.0018391 
  8747.19922   -0.0042091 
  8767.08008   -0.0084961 
  8786.95996    -0.006294 
  8806.83984   -0.0037389 
  8826.71973  -0.00038768 
  8846.59961   -0.0017733 
  8866.48047    -0.004021 
  8886.35938   -0.0071207 
  8906.24023   0.00025407 
  8926.12012   -0.0047529 
  8946.00000   -0.0088169 
  8965.87988   -0.0012915 
  8985.75977   -0.0021388 
  9005.64062   -0.0029373 
  9025.51953   -0.0079887 
  9045.39941   -0.0032045 
  9065.28027   -0.0053163 
  9085.16016   -0.0040456 
  9105.04004   -0.0021751 
  9124.91992  -0.00013733 
  9144.79980  -0.00075527 
  9164.67969   -0.0034328 
  9184.55957  -0.00022217 
  9204.43945    0.0016127 
  9224.32031   -0.0077883 
  9244.20020   -0.0048766 
  9264.08008   -0.0026602 
  9283.95996  -0.00052552 
  9303.83984   -0.0071225 
  9323.71973    0.0088244 
  9343.59961   -0.0017592 
  9363.48047   -0.0066453 
  9383.36035   -0.0069345 
  9403.24023   -0.0030237 
  9423.12012  -0.00069329 
  9443.00000   -0.0058486 
  9462.87988   -0.0042458 
  9482.75977   -0.0039049 
  9502.63965   -0.0044907 
  9522.52051   -0.0035821 
  9542.40039   -0.0032642 
  9562.28027   -0.0045959 
  9582.16016   -0.0031885 
  9602.04004   -0.0028829 
  9621.91992   -0.0049363 
  9641.79980  -0.00069272 
  9661.68066   -0.0036469 
  9681.56055   -0.0044727 
  9701.43945   -0.0054302 
  9721.32031   -0.0044534 
  9741.20020   -0.0032298 
  9761.08008   -0.0061964 
  9780.95996   -0.0051549 
  9800.83984   -0.0009144 
  9820.72070   -0.0017963 
  9840.59961    0.0014722 
  9860.47949   -0.0043557 
  9880.36035   -0.0021383 
  9900.24023    -0.006995 
  9920.12012   -0.0080745 
  9940.00000   -0.0088377 
  9959.87988  -0.00036618 
  9979.75977   -0.0030533 
  9999.63965   -0.0083581 
 10019.52051    0.0026804 
 10039.40039    -0.004117 
 10059.27930   -0.0054456 
 10079.16016   -0.0029265 
 10099.04004   -0.0041051 
 10118.91992   -0.0041535 
 10138.79980   -0.0040811 
 10158.67969   -0.0043531 
 10178.56055   -0.0020479 
 10198.43945   -0.0041072 
 10218.31934   -0.0015514 
 10238.20020   -0.0023496 
 10258.08008   -0.0063817 
 10277.95996   -0.0026851 
 10297.84082   -0.0017847 
 10317.71973   -0.0047062 
 10337.59961   -0.0040625 
 10357.48047   -0.0033207 
 10377.35938   -0.0042566 
 10397.24023   -0.0060109 
 10417.12012   -0.0036346 
 10437.00000   0.00051183 
 10456.87988   -0.0037548 
 10476.75977   -0.0021777 
 10496.63965   -0.0009255 
 10516.51953   -0.0058493 
 10536.40039   -0.0024991 
 10556.28027   -0.0028029 
 10576.16016  -0.00045562 
 10596.04004   -0.0071383 
 10615.91992   -0.0045635 
 10635.79980    -0.006184 
 10655.67969   -0.0055067 
 10675.56055    0.0016891 
 10695.43945   -0.0013686 
 10715.32031   0.00014433 
 10735.20020   -0.0060416 
 10755.08008   -0.0070438 
 10774.95996    0.0024757 
 10794.83984   -0.0072077 
 10814.72070  -0.00057167 
 10834.59961   -0.0068157 
 10854.48047   -0.0015862 
 10874.36035   -0.0032368 
 10894.23926    0.0029718 
 10914.12012   0.00043535 
 10934.00000   -0.0064571 
 10953.87891   -0.0021009 
 10973.75977   -0.0043706 
 10993.64062    -0.003348 
 11013.52051    -0.005091 
 11033.39941    -0.004753 
 11053.28027   -0.0028166 
 11073.16016   -0.0091728 
 11093.03906   -0.0083958 
 11112.91992    0.0053598 
 11132.80078   -0.0014457 
 11152.67969   0.00015341 
 11172.55957    -0.006492 
 11192.44043   -0.0033994 
 11212.32031   -0.0053992 
 11232.19922   -0.0091933 
 11252.08008     0.016629 
 11271.96094    -0.011148 
 11291.83984   -0.0063073 
 11311.71973   -0.0028688 
 11331.60059    -0.010236 
 11351.47949   -0.0019702 
 11371.35938    -0.012774 
 11391.24023    0.0091758 
 11411.12109   -0.0010156 
 11431.00000   -0.0045686 
 11450.87988   -0.0072941 
 11470.76074    0.0083833 
 11490.63965   -0.0063727 
 11510.51953   -0.0098738 
 11530.40039   -0.0051735 
 11550.27930    0.0038088 
 11570.16016   -0.0056168 
 11590.04004   0.00038113 
 11609.91992   -0.0087248 
 11629.79980   -0.0038052 
 11649.67969   -0.0068214 
 11669.56055   -0.0034529 
 11689.43945   -0.0055092 
 11709.32031   -0.0060022 
 11729.20020  -0.00092237 
 11749.08008     2.36e-05 
 11768.95996   -0.0046604 
 11788.83984    -0.002642 
 11808.71973   -0.0034512 
 11828.59961   -0.0098909 
 11848.48047   -0.0023194 
 11868.36035   -0.0038699 
 11888.24023    -0.000442 
 11908.12012   -0.0034675 
 11928.00000   -0.0038966 
 11947.87988   -0.0030871 
 11967.75977   -0.0023716 
 11987.64062   -0.0035196 
 12007.51953   -0.0044844 
 12027.40039    -3.34e-05 
 12047.28027  -0.00042025 
 12067.15918   0.00034787 
 12087.04004   -0.0023582 
 12106.91992   -0.0027486 
 12126.80078    -0.002754 
 12146.67969    -5.72e-05 
 12166.56055   -0.0039288 
 12186.44043   -0.0011983 
 12206.31934   -0.0011869 
 12226.20020   -0.0053845 
 12246.08008   -0.0084831 
 12265.95898   -0.0017625 
 12285.83984    0.0064717 
 12305.72070   -0.0035091 
 12325.60059   -0.0039049 
 12345.47949  -0.00018864 
 12365.36035  -0.00029359 
 12385.24023   -0.0081373 
 12405.11914   -0.0038598 
 12425.00000  -0.00043625 
 12444.88086   -0.0061761 
 12464.75977   -0.0039299 
 12484.63965  -0.00059977 
 12504.52051   -0.0056466 
 12524.39941   -0.0096249 
 12544.27930     -7.4e-05 
 12564.16016  -0.00086862 
 12584.04102   -0.0069647 
 12603.91992  -0.00045152 
 12623.79980   -0.0031719 
 12643.68066   -0.0055831 
 12663.55957   -0.0060047 
 12683.43945   -0.0037176 
 12703.32031  -0.00080727 
 12723.19922   -0.0065414 
 12743.08008   -0.0061745 
 12762.95996   -0.0035518 
 12782.84082   -0.0037401 
 12802.71973   -0.0073751 
 12822.59961   -0.0057925 
 12842.48047    0.0040226 
 12862.35938   -0.0045285 
 12882.24023  -0.00016341 
 12902.12012   -0.0025582 
 12922.00000   -0.0029785 
 12941.87988    -0.007189 
 12961.75977   -0.0050499 
 12981.63965    -0.002909 
 13001.51953   -0.0032134 
 13021.40039   -0.0047054 
 13041.28027   -0.0017163 
 13061.16016   -0.0030809 
 13081.04004   -0.0062251 
 13100.91992   -0.0017065 
 13120.79980   -0.0054739 
 13140.67969   0.00096636 
 13160.56055   -0.0039929 
 13180.43945    -0.001787 
 13200.32031   -0.0052859 
 13220.20020   -0.0050656 
 13240.08008   -0.0046722 
 13259.95996   -0.0084956 
 13279.83984  -0.00017858 
 13299.72070   -0.0022659 
 13319.59961   -0.0093373 
 13339.48047    0.0013119 
 13359.36035    -0.012353 
 13379.23926   0.00052946 
 13399.12012   -0.0061217 
 13419.00000   -0.0083992 
 13438.87891    0.0057368 
 13458.75977    -0.008722 
 13478.64062   -0.0012046 
 13498.52051   -0.0027881 
 13518.39941   -0.0053855 
 13538.28027   -0.0029661 
 13558.16016    0.0022521 
 13578.03906   -0.0096303 
 13597.91992   -0.0068302 
 13617.80078   -0.0021748 
 13637.67969   -0.0069526 
 13657.55957   -0.0046496 
 13677.44043   -0.0047967 
 13697.32031   -0.0032283 
 13717.19922   -0.0034689 
 13737.08008     0.002192 
 13756.96094   -0.0054945 
 13776.83984     0.001929 
 13796.71973    -0.010488 
 13816.60059   -0.0011461 
 13836.47949   -0.0045727 
 13856.35938   -0.0079058 
 13876.24023   -0.0015049 
 13896.12109   -0.0054691 
 13916.00000    -0.001454 
 13935.87988    -0.004575 
 13955.76074   0.00052094 
 13975.63965  -0.00025016 
 13995.51953   -0.0004229 
 14015.40039   -0.0051899 
 14035.27930   -0.0045428 
 14055.16016   -0.0017644 
 14075.04004   -0.0074273 
 14094.91992   -0.0060732 
 14114.79980   -0.0022905 
 14134.67969   -0.0048428 
 14154.56055   -0.0071653 
 14174.43945     0.001311 
 14194.32031   -0.0039368 
 14214.20020    -0.002001 
 14234.08008   -0.0056591 
 14253.95996   -0.0049885 
 14273.83984    -0.011341 
 14293.71973     0.007221 
 14313.59961    -0.005249 
 14333.48047   0.00027199 
 14353.36035   -0.0020599 
 14373.24023   -0.0031096 
 14393.12012   -0.0043969 
 14413.00000   -0.0038053 
 14432.87988   -0.0043603 
 14452.75977    -0.004176 
 14472.64062   -0.0021404 
 14492.51953  -0.00052626 
 14512.40039    -0.011118 
 14532.28027   -0.0028504 
 14552.15918   -0.0056509 
 14572.04004    -0.006793 
 14591.91992   -0.0074083 
 14611.80078   -0.0061193 
 14631.67969   -0.0021354 
 14651.56055    0.0021717 
 14671.44043   -0.0066483 
 14691.31934   -0.0081674 
 14711.20020   -0.0053042 
 14731.08008   -0.0023132 
 14750.95898   -0.0059201 
 14770.83984    -0.006129 
 14790.72070   -0.0065537 
 14810.60059   -0.0064855 
 14830.47949    0.0025485 
 14850.36035   -0.0017986 
 14870.24023   -0.0043461 
 14890.11914   -0.0029229 
 14910.00000   -0.0025216 
 14929.88086     0.002546 
 14949.75977   -0.0055319 
 14969.63965   -0.0081016 
 14989.52051   -0.0075109 
 15009.39941    -0.003968 
 15029.27930   0.00075724 
 15049.16016   -0.0015948 
 15069.04102   -0.0029359 
 15088.91992   -0.0031541 
 15108.79980   -0.0048914 
 15128.68066   -0.0006925 
 15148.55957   -0.0075338 
 15168.43945   -0.0034479 
 15188.32031   -0.0032983 
 15208.19922   -0.0029578 
 15228.08008   -0.0037367 
 15247.95996   -0.0031174 
 15267.84082  -0.00029712 
 15287.71973   -0.0019821 
 15307.59961    0.0004852 
 15327.48047   -0.0028987 
 15347.35938   -0.0061128 
 15367.24023   -0.0046235 
 15387.12012    0.0062841 
 15407.00000     -0.01592 
 15426.87988   -0.0027061 
 15446.75977     -0.00107 
 15466.63965   -0.0046386 
 15486.51953   -0.0024089 
 15506.40039  -0.00087774 
 15526.28027   -0.0014363 
 15546.16016    0.0011615 
 15566.04004   -0.0086986 
 15585.91992   -0.0036971 
 15605.79980   -0.0025915 
 15625.67969  -0.00034058 
 15645.56055   -0.0022697 
 15665.43945  -0.00079977 
 15685.32031   -0.0010146 
 15705.20020   -0.0064549 
 15725.08008   -0.0063216 
 15744.95996   -0.0027844 
 15764.83984   -0.0029765 
 15784.72070    -0.003318 
 15804.59961   -0.0048971 
 15824.48047   -0.0044892 
 15844.36035    0.0033494 
 15864.23926   -0.0028484 
 15884.12012   -0.0027725 
 15904.00000   -0.0080328 
 15923.87891   -0.0076682 
 15943.75977  -0.00053548 
 15963.64062   -0.0057502 
 15983.52051   -0.0012712 
 16003.39941   -0.0040811 
 16023.28027  -0.00071543 
 16043.16016   -0.0035279 
 16063.03906   -0.0037733 
 16082.91992   -0.0046994 
 16102.80078   -0.0044597 
 16122.67969   -0.0038638 
 16142.55957   -0.0001713 
 16162.44043   -0.0082455 
 16182.32031   -0.0028071 
 16202.19922    0.0024255 
 16222.08008   -0.0022676 
 16241.96094    -0.006083 
 16261.83984   -0.0044553 
 16281.71973    0.0012838 
 16301.60059   -0.0059606 
 16321.47949   -0.0019221 
 16341.35938   -0.0011194 
 16361.24023    -0.006321 
 16381.12109   -0.0035746 
 16401.00000   -0.0097947 
 16420.88086     0.006199 
 16440.75977   -0.0020973 
 16460.64062   -0.0041247 
 16480.51953    0.0060185 
 16500.40039   -0.0088248 
 16520.27930   -0.0035202 
 16540.16016   -0.0036916 
 16560.04102   -0.0035887 
 16579.91992   -0.0046854 
 16599.80078   -0.0026923 
 16619.67969   -0.0036193 
 16639.56055  -0.00061714 
 16659.43945    -0.006729 
 16679.32031   -0.0054232 
 16699.20117   -0.0018902 
 16719.08008   -0.0047541 
 16738.96094    -0.014447 
 16758.83984    0.0055391 
 16778.71875   0.00031405 
 16798.59961   -0.0034116 
 16818.48047   -0.0052861 
 16838.36133   -0.0026401 
 16858.24023  -0.00098369 
 16878.12109  -0.00019581 
 16898.00000     -0.00412 
 16917.87891   -0.0063818 
 16937.75977    -0.005152 
 16957.64062   -0.0019321 
 16977.51953   -0.0021969 
 16997.40039   -0.0015193 
 17017.28125   -0.0064414 
 17037.16016   -0.0080906 
 17057.03906   -0.0051084 
 17076.91992   -0.0042964 
 17096.80078    -0.002802 
 17116.67969   -0.0045245 
 17136.56055   -0.0027577 
 17156.44141   -0.0036653 
 17176.32031   -0.0085815 
 17196.19922   -0.0011555 
 17216.08008   -0.0028994 
 17235.95898   -0.0056562 
 17255.83984   -0.0036081 
 17275.72070   -0.0030638 
 17295.60156   -0.0034501 
 17315.48047   -0.0039218 
 17335.35938   -0.0019001 
 17355.24023   -0.0048165 
 17375.11914   -0.0016101 
 17395.00000    -0.010856 
 17414.88086     0.002495 
 17434.75977   -0.0029139 
 17454.64062   -0.0093916 
 17474.51953    0.0051466 
 17494.39844   -0.0052829 
 17514.27930   -0.0053144 
 17534.16016   -0.0037691 
 17554.04102   -0.0024074 
 17573.91992   -0.0069928 
 17593.80078   -0.0017858 
 17613.67969  -0.00046609 
 17633.55859   -0.0036319 
 17653.43945   -0.0073189 
 17673.32031    -0.007885 
 17693.19922   -0.0021473 
 17713.08008   -0.0039368 
 17732.96094   -0.0013621 
 17752.83984   -0.0032546 
 17772.71875   -0.0033005 
 17792.59961    -0.010393 
 17812.48047    0.0068859 
 17832.35938    -0.013649 
 17852.24023    0.0013749 
 17872.12109   -0.0035418 
 17892.00000   -0.0043466 
 17911.87891   -0.0016001 
 17931.75977   -0.0047365 
 17951.63867   -0.0084175 
 17971.51953    0.0038419 
 17991.40039   0.00075388 
 18011.28125   -0.0043519 
 18031.16016   0.00071915 
 18051.03906   0.00042727 
 18070.91992   -0.0016315 
 18090.79883  -0.00089337 
 18110.67969   -0.0019142 
 18130.56055   -0.0010615 
 18150.43945     -0.00249 
 18170.32031   -0.0050592 
 18190.19922   -0.0022571 
 18210.08008   -0.0036845 
 18229.95898   -0.0053293 
 18249.83984    -0.003456 
 18269.72070   -0.0031151 
 18289.59961    0.0020387 
 18309.48047   -0.0065648 
 18329.35938    -0.005194 
 18349.24023   -0.0030871 
 18369.11914   -0.0036765 
 18389.00000   -0.0010833 
 18408.87891   -0.0019205 
 18428.75977   -0.0024689 
 18448.64062  -0.00065646 
 18468.51953   -0.0029601 
 18488.40039   -0.0043796 
 18508.27930  -0.00092614 
 18528.16016   -0.0045374 
 18548.03906  -0.00040251 
 18567.91992   -0.0050991 
 18587.80078    0.0015721 
 18607.67969     0.001937 
 18627.56055   -0.0047569 
 18647.43945    -0.001676 
 18667.32031   0.00010695 
 18687.19922   0.00015222 
 18707.08008   -0.0011431 
 18726.96094  -0.00046052 
 18746.83984   -0.0030766 
 18766.72070   -0.0043711 
 18786.59961    -7.01e-05 
 18806.48047    -0.003508 
 18826.35938    0.0090004 
 18846.24023    0.0026541 
 18866.12109   0.00094081 
 18886.00000   -0.0024666 
 18905.88086    0.0066315 
 18925.75977    0.0081917 
 18945.64062     0.013798 
 18965.51953    0.0095926 
 18985.40039     0.015569 
 19005.27930     0.022586 
 19025.16016     0.027011 
 19045.04102     0.037169 
 19064.91992     0.052334 
 19084.80078     0.065498 
 19104.67969      0.09231 
 19124.56055      0.10979 
 19144.43945      0.14984 
 19164.32031      0.19011 
 19184.20117      0.23801 
 19204.08008      0.29151 
 19223.96094       0.3499 
 19243.83984      0.40922 
 19263.71875      0.47195 
 19283.59961      0.53628 
 19303.48047      0.59707 
 19323.36133      0.66501 
 19343.24023      0.73998 
 19363.12109      0.81848 
 19383.00000      0.91234 
 19402.87891       1.0084 
 19422.75977       1.1361 
 19442.64062       1.2872 
 19462.51953       1.4803 
 19482.40039       1.6989 
 19502.28125       1.9718 
 19522.16016        2.317 
 19542.03906       2.7843 
 19561.91992       3.3511 
 19581.80078       4.0535 
 19601.67969       4.9724 
 19621.56055       6.1381 
 19641.44141       7.6299 
 19661.32031        9.562 
 19681.19922       11.992 
 19701.08008       15.144 
 19720.95898        18.89 
 19740.83984       23.344 
 19760.72070       28.378 
 19780.60156       33.588 
 19800.48047       38.743 
 19820.35938       43.625 
 19840.24023       48.082 
 19860.11914       51.527 
 19880.00000       54.418 
 19899.88086       56.762 
 19919.75977       58.774 
 19939.64062       60.545 
 19959.51953       62.221 
 19979.39844       63.939 
 19999.27930       65.567 
 20019.16016       67.275 
 20039.04102       69.006 
 20058.91992       70.589 
 20078.80078       72.167 
 20098.67969        73.54 
 20118.55859       74.766 
 20138.43945       75.727 
 20158.32031       76.461 
 20178.19922       77.015 
 20198.08008       77.269 
 20217.96094       77.447 
 20237.83984        77.49 
 20257.71875        77.38 
 20277.59961       77.277 
 20297.48047       77.137 
 20317.35938       77.082 
 20337.24023       76.984 
 20357.12109       76.982 
 20377.00000       77.073 
 20396.87891       77.212 
 20416.75977       77.413 
 20436.63867       77.703 
 20456.51953       77.996 
 20476.40039        78.34 
 20496.27930       78.668 
 20516.16016       79.021 
 20536.03906       79.392 
 20555.91992       79.674 
 20575.80078        79.97 
 20595.68164       80.186 
 20615.55859        80.34 
 20635.43945       80.514 
 20655.32031       80.554 
 20675.19922       80.588 
 20695.08008       80.633 
 20714.96094       80.589 
 20734.83984       80.558 
 20754.71875       80.504 
 20774.59961       80.473 
 20794.48047       80.413 
 20814.35938         80.4 
 20834.24023       80.429 
 20854.12109       80.422 
 20874.00000       80.504 
 20893.87891       80.584 
 20913.75977       80.678 
 20933.64062       80.843 
 20953.51953       80.991 
 20973.40039       81.171 
 20993.27930       81.377 
 21013.16016       81.537 
 21033.03906       81.746 
 21052.91992       81.924 
 21072.80078       82.087 
 21092.67969       82.226 
 21112.56055       82.354 
 21132.43945       82.465 
 21152.32031       82.514 
 21172.19922       82.584 
 21192.08008       82.614 
 21211.96094       82.577 
 21231.83984       82.567 
 21251.72070       82.505 
 21271.59961       82.409 
 21291.48047       82.337 
 21311.35938       82.246 
 21331.24023       82.166 
 21351.12109       82.036 
 21371.00000       81.944 
 21390.87891       81.833 
 21410.75977       81.758 
 21430.64062       81.683 
 21450.51953       81.621 
 21470.40039       81.579 
 21490.28125       81.562 
 21510.16016       81.557 
 21530.03906       81.605 
 21549.91992       81.615 
 21569.80078       81.692 
 21589.67969        81.76 
 21609.56055       81.823 
 21629.44141       81.975 
 21649.31836       82.089 
 21669.19922       82.249 
 21689.08008        82.33 
 21708.96094       82.511 
 21728.83984       82.664 
 21748.72070       82.787 
 21768.60156       82.922 
 21788.47852       83.014 
 21808.35938       83.148 
 21828.24023       83.208 
 21848.12109       83.279 
 21868.00000       83.387 
 21887.88086       83.421 
 21907.75781       83.464 
 21927.63867       83.555 
 21947.51953       83.578 
 21967.40039       83.697 
 21987.28125       83.695 
 22007.16016       83.815 
 22027.04102        83.87 
 22046.91797        83.92 
 22066.79883       83.997 
 22086.67969       84.059 
 22106.56055       84.115 
 22126.44141       84.155 
 22146.32031       84.164 
 22166.20117       84.245 
 22186.07812       84.264 
 22205.95898       84.322 
 22225.83984       84.376 
 22245.72070       84.387 
 22265.60156       84.482 
 22285.48047       84.473 
 22305.35938        84.56 
 22325.23828       84.615 
 22345.11914       84.659 
 22365.00000       84.714 
 22384.88086       84.791 
 22404.76172       84.819 
 22424.64062       84.855 
 22444.51953       84.899 
 22464.39844       84.938 
 22484.27930       84.962 
 22504.16016       84.964 
 22524.04102       84.999 
 22543.92188       84.978 
 22563.79883       84.962 
 22583.67969       84.922 
 22603.55859       84.907 
 22623.43945       84.882 
 22643.32031        84.79 
 22663.20117       84.724 
 22683.08203       84.609 
 22702.95898       84.446 
 22722.83984       84.264 
 22742.71875       84.022 
 22762.59961        83.65 
 22782.48047       83.216 
 22802.36133       82.489 
 22822.24219       81.685 
 22842.11914       80.528 
 22862.00000       79.097 
 22881.87891       77.261 
 22901.75977        75.02 
 22921.64062       72.351 
 22941.52148       69.258 
 22961.39844       65.511 
 22981.27930       61.386 
 23001.16016        57.09 
 23021.03906       52.611 
 23040.91992       47.993 
 23060.80078       43.471 
 23080.68164       38.965 
 23100.55859        34.66 
 23120.43945       30.582 
 23140.32031       26.938 
 23160.19922       23.647 
 23180.08008       20.636 
 23199.96094       18.052 
 23219.83984       15.776 
 23239.71875       13.826 
 23259.59961       12.127 
 23279.48047        10.59 
 23299.35938       9.2828 
 23319.24023       8.1272 
 23339.12109       7.1141 
 23359.00000       6.2715 
 23378.87891       5.4966 
 23398.75977       4.8328 
 23418.64062       4.2917 
 23438.51953       3.8122 
 23458.40039       3.3789 
 23478.27930       3.0085 
 23498.16016       2.6816 
 23518.03906       2.4026 
 23537.91992       2.1635 
 23557.80078       1.9397 
 23577.67969       1.7481 
 23597.56055       1.5782 
 23617.43945       1.4202 
 23637.32031        1.293 
 23657.19922       1.1737 
 23677.08008       1.0634 
 23696.96094      0.96543 
 23716.83984       0.8782 
 23736.72070      0.80092 
 23756.59961      0.73049 
 23776.48047      0.67398 
 23796.35938      0.61127 
 23816.24023      0.55846 
 23836.12109      0.51598 
 23856.00000      0.47144 
 23875.87891      0.42741 
 23895.75977      0.39414 
 23915.64062      0.37339 
 23935.51953      0.33721 
 23955.40039      0.31004 
 23975.28125      0.28683 
 23995.16016      0.25318 
 24015.03906      0.23823 
 24034.91992      0.22209 
 24054.80078      0.20433 
 24074.67969      0.18234 
 24094.56055      0.17301 
 24114.44141      0.15952 
 24134.31836      0.14062 
 24154.19922      0.12804 
 24174.08008       0.1365 
 24193.96094      0.11409 
 24213.83984       0.1091 
 24233.72070     0.095149 
 24253.60156     0.086951 
 24273.47852     0.082165 
 24293.35938     0.074866 
 24313.24023     0.068449 
 24333.12109     0.063466 
 24353.00000     0.060195 
 24372.88086     0.054306 
 24392.75781     0.052897 
 24412.63867     0.047223 
 24432.51953     0.039804 
 24452.40039     0.032805 
 24472.28125     0.037448 
 24492.16016     0.032399 
 24512.04102     0.029562 
 24531.91797     0.028367 
 24551.79883     0.026849 
 24571.67969     0.029645 
 24591.56055     0.018841 
 24611.44141     0.016314 
 24631.32031     0.010698 
 24651.20117     0.030161 
 24671.07812     0.024291 
 24690.95898     0.013841 
 24710.83984     0.012434 
 24730.72070     0.012442 
 24750.60156    0.0087548 
 24770.48047    0.0086889 
 24790.35938     0.013757 
 24810.23828      0.01164 
 24830.11914    0.0072202 
 24850.00000    0.0051691 
 24869.88086     0.010203 
 24889.76172    0.0036974 
 24909.64062    0.0096608 
 24929.51953     0.010929 
 24949.39844   -0.0018586 
 24969.27930    0.0054296 
 24989.16016    0.0019437 
 25009.04102    0.0013618 
 25028.92188     0.006363 
 25048.79883    0.0048941 
 25068.67969    0.0028365 
 25088.55859    0.0040836 
 25108.43945    0.0040058 
 25128.32031   -0.0031127 
 25148.20117    0.0034958 
 25168.08203    0.0053183 
 25187.95898    0.0020325 
 25207.83984    0.0027585 
 25227.71875  -0.00053314 
 25247.59961  -0.00079009 
 25267.48047   0.00022058 
 25287.36133    0.0029181 
 25307.24219  -0.00073558 
 25327.11914    0.0051342 
 25347.00000   -0.0019562 
 25366.87891    0.0028537 
 25386.75977   -0.0017201 
 25406.64062   -0.0015101 
 25426.52148  -0.00034435 
 25446.39844   -0.0042975 
 25466.27930   0.00021017 
 25486.16016   -0.0036023 
 25506.03906   -0.0037816 
 25525.91992   -0.0038867 
 25545.80078   0.00061246 
 25565.68164   -0.0049535 
 25585.55859   -0.0035105 
 25605.43945    0.0036184 
 25625.32031   -0.0041208 
 25645.19922  -0.00074135 
 25665.08008   -0.0029813 
 25684.96094   -0.0020825 
 25704.83984     0.003072 
 25724.71875   -0.0013836 
 25744.59961    -0.002672 
 25764.48047   -0.0023826 
 25784.35938   -0.0025646 
 25804.24023    0.0025722 
 25824.12109   -0.0080294 
 25844.00000  -0.00070161 
 25863.87891  -0.00095577 
 25883.75977    0.0025219 
 25903.64062    -0.005803 
 25923.51953   -0.0043986 
 25943.40039   -0.0084138 
 25963.27930      0.00607 
 25983.16016    -0.001501 
 26003.03906   -0.0060731 
 26022.91992   -0.0052148 
 26042.80078   -0.0033352 
 26062.67969   -0.0054963 
 26082.56055   -0.0037826 
 26102.43945   -0.0044723 
 26122.32031    0.0027601 
 26142.19922    0.0021756 
 26162.08008    -0.010012 
 26181.96094   -0.0024969 
 26201.83984   -0.0014655 
 26221.72070   -0.0030941 
 26241.59961   -0.0020395 
 26261.48047   -0.0064818 
 26281.35938    0.0030192 
 26301.24023   -0.0015918 
 26321.12109   -0.0052307 
 26341.00000   -0.0045633 
 26360.87891   -0.0034864 
 26380.75977   0.00086184 
 26400.64062   -0.0023083 
 26420.51953   -0.0012942 
 26440.40039   -0.0027267 
 26460.28125   -0.0026227 
 26480.16016   0.00061721 
 26500.03906   -0.0072978 
 26519.91992   -0.0025495 
 26539.80078   -0.0059844 
 26559.67969   -0.0013362 
 26579.56055   -0.0065654 
 26599.44141   -0.0018307 
 26619.31836   -0.0063382 
 26639.19922  -0.00071335 
 26659.08008   -0.0030999 
 26678.96094  -0.00087296 
 26698.83984    0.0028559 
 26718.72070   -0.0040695 
 26738.60156   -0.0018375 
 26758.47852   -0.0035762 
 26778.35938   -0.0033331 
 26798.24023    -0.001565 
 26818.12109   -0.0024053 
 26838.00000   -0.0074661 
 26857.88086   -0.0043047 
 26877.75781   -0.0019427 
 26897.63867   -0.0020998 
 26917.51953   -0.0034185 
 26937.40039   -0.0028969 
 26957.28125   -0.0013957 
 26977.16016   -0.0056123 
 26997.04102   -0.0005737 
 27016.91797  -0.00069874 
 27036.79883   -0.0083711 
 27056.67969   -0.0053695 
 27076.56055     -2.4e-05 
 27096.44141   -0.0087865 
 27116.32031   -0.0060957 
 27136.20117   -0.0034579 
 27156.07812   -0.0037843 
 27175.95898   -0.0050466 
 27195.83984   -0.0027306 
 27215.72070  -0.00042459 
 27235.60156   -0.0079943 
 27255.48047   -0.0059378 
 27275.35938   -0.0018628 
 27295.23828   -0.0022871 
 27315.11914   -0.0076964 
 27335.00000     0.009586 
 27354.88086   -0.0058876 
 27374.76172   -0.0061986 
 27394.64062   0.00024454 
 27414.51953    -0.004569 
 27434.39844   -0.0021477 
 27454.27930   -0.0083543 
 27474.16016    -0.001251 
 27494.04102   -0.0070013 
 27513.92188    0.0018298 
 27533.79883   -0.0030902 
 27553.67969   -0.0030717 
 27573.55859   -0.0060559 
 27593.43945   -0.0038013 
 27613.32031   -0.0033611 
 27633.20117   -0.0042843 
 27653.08203   -0.0029679 
 27672.95898   -0.0061595 
 27692.83984   -0.0037421 
 27712.71875     7.71e-05 
 27732.59961   -0.0042513 
 27752.48047    -0.001545 
 27772.36133   -0.0066679 
 27792.24219   -0.0078004 
 27812.11914   -0.0016508 
 27832.00000    0.0021483 
 27851.87891    -0.008595 
 27871.75977    0.0038227 
 27891.64062   -0.0068762 
 27911.52148   -0.0030882 
 27931.39844   -0.0032674 
 27951.27930   -0.0017831 
 27971.16016    -0.011005 
 27991.03906    0.0092958 
 28010.91992   -0.0029989 
 28030.80078   -0.0064003 
 28050.68164    -0.004384 
 28070.55859   -0.0024351 
 28090.43945   -0.0055466 
 28110.32031   -0.0020324 
 28130.19922   -0.0069116 
 28150.08008   -0.0050124 
 28169.96094   -0.0032167 
 28189.83984   -0.0059113 
 28209.71875   -0.0014504 
 28229.59961    -0.006375 
 28249.48047    -0.007152 
 28269.35938   0.00058999 
 28289.24023  -0.00014886 
 28309.12109   -0.0041218 
 28329.00000   -0.0052277 
 28348.87891   -0.0025807 
 28368.75977   -0.0022613 
 28388.64062   -0.0073546 
 28408.51953    0.0029062 
 28428.40039   -0.0051742 
 28448.27930   -0.0081395 
 28468.16016   -0.0032836 
 28488.03906   -0.0036452 
 28507.91992    -0.006493 
 28527.80078   -0.0062781 
 28547.67969   -0.0020365 
 28567.56055   -0.0024417 
 28587.43945   -0.0023114 
 28607.32031   -0.0022299 
 28627.19922   -0.0046211 
 28647.08008   -0.0044197 
 28666.96094   -0.0028753 
 28686.83984   -0.0050453 
 28706.72070   0.00019989 
 28726.59961   -0.0059257 
 28746.48047   -0.0026753 
 28766.35938   -0.0073101 
 28786.24023   -0.0028514 
 28806.12109   -0.0036947 
 28826.00000   -0.0053668 
 28845.87891   -0.0021103 
 28865.75977  -0.00038546 
 28885.64062   -0.0048301 
 28905.51953   -0.0028532 
 28925.40039   0.00062119 
 28945.28125    -0.001653 
 28965.16016   -0.0060612 
 28985.03906   -0.0020447 
 29004.91992   -0.0082179 
 29024.80078   -0.0030619 
 29044.67969    -0.011387 
 29064.56055   -0.0052433 
 29084.44141    0.0021383 
 29104.31836   -0.0022769 
 29124.19922   -0.0099605 
 29144.08008   -0.0090784 
 29163.96094    0.0048135 
 29183.83984   -0.0039665 
 29203.72070    0.0010251 
 29223.60156   -0.0077203 
 29243.47852   -0.0021917 
 29263.35938  -0.00020305 
 29283.24023   -0.0065411 
 29303.12109   -0.0030346 
 29323.00000   -0.0062212 
 29342.88086   -0.0031527 
 29362.75781   -0.0025752 
 29382.63867   -0.0053494 
 29402.51953   -0.0032478 
 29422.40039   -0.0049596 
 29442.28125    0.0033219 
 29462.16016   -0.0048685 
 29482.04102    -0.013785 
 29501.91797   -0.0086785 
 29521.79883   -0.0078628 
 29541.67969   -0.0042027 
 29561.56055    -0.012377 
 29581.44141   -0.0092422 
 29601.32031   -0.0037032 
 29621.20117  -0.00039301 
 29641.07812     -0.01595 
 29660.95898   -0.0037158 
 29680.83984   -0.0084444 
 29700.72070    -0.011135 
 29720.60156    0.0045823 
 29740.48047   -0.0042877 
 29760.35938   -0.0061152 
 29780.23828   -0.0089661 
 29800.11914   -0.0035009 
 29820.00000   -0.0024267 
 50000.00000       0.0001 
100000.00000       0.0001 
